Data: giovedì 7 maggio 2020	Ora: 13:46
Analizzatore  1: TOF TOF LR	Analizzatore  2: R66 ROUTE66_HR_XPS	
pass energy/rall 1: 0.00	pass energy/rall 2: 40.00	
******************************************************
Scansione:    angolo polare
Min (eV): 256.00	Max (eV): 343.00	Step (eV): 0.25	
kinetic energy 1 (eV): 0.00	kinetic energy 2 (eV): 1198.70
polar angle (deg): 343.00	X axis (mm): 580.50
*******************  R66 parameters ********************
Step in ch_x_eV: 10	Ch x eV @ Ep=1eV: 5236
binned channels: 11	same region acquisitions: 41
******************************************************
Acq. time (s):  3.00	Number of scans:  1	Total acq. time (s):  3.00
******************************************************
256.000000	285.000000
256.250000	303.000000
256.500000	329.000000
256.750000	324.000000
257.000000	340.000000
257.250000	344.000000
257.500000	328.000000
257.750000	335.000000
258.000000	342.000000
258.250000	343.000000
258.500000	347.000000
258.750000	355.000000
259.000000	357.000000
259.250000	345.000000
259.500000	379.000000
259.750000	393.000000
260.000000	394.000000
260.250000	390.000000
260.500000	382.000000
260.750000	407.000000
261.000000	358.000000
261.250000	414.000000
261.500000	410.000000
261.750000	431.000000
262.000000	436.000000
262.250000	433.000000
262.500000	431.000000
262.750000	456.000000
263.000000	447.000000
263.250000	427.000000
263.500000	447.000000
263.750000	450.000000
264.000000	455.000000
264.250000	464.000000
264.500000	478.000000
264.750000	479.000000
265.000000	483.000000
265.250000	493.000000
265.500000	489.000000
265.750000	480.000000
266.000000	526.000000
266.250000	519.000000
266.500000	526.000000
266.750000	532.000000
267.000000	521.000000
267.250000	514.000000
267.500000	541.000000
267.750000	549.000000
268.000000	544.000000
268.250000	532.000000
268.500000	573.000000
268.750000	564.000000
269.000000	546.000000
269.250000	567.000000
269.500000	556.000000
269.750000	574.000000
270.000000	583.000000
270.250000	548.000000
270.500000	583.000000
270.750000	579.000000
271.000000	584.000000
271.250000	597.000000
271.500000	599.000000
271.750000	582.000000
272.000000	599.000000
272.250000	642.000000
272.500000	596.000000
272.750000	601.000000
273.000000	599.000000
273.250000	611.000000
273.500000	569.000000
273.750000	589.000000
274.000000	621.000000
274.250000	611.000000
274.500000	600.000000
274.750000	612.000000
275.000000	590.000000
275.250000	630.000000
275.500000	631.000000
275.750000	619.000000
276.000000	657.000000
276.250000	643.000000
276.500000	606.000000
276.750000	632.000000
277.000000	605.000000
277.250000	607.000000
277.500000	627.000000
277.750000	617.000000
278.000000	614.000000
278.250000	624.000000
278.500000	624.000000
278.750000	619.000000
279.000000	632.000000
279.250000	623.000000
279.500000	626.000000
279.750000	661.000000
280.000000	635.000000
280.250000	633.000000
280.500000	638.000000
280.750000	636.000000
281.000000	619.000000
281.250000	642.000000
281.500000	636.000000
281.750000	644.000000
282.000000	654.000000
282.250000	615.000000
282.500000	607.000000
282.750000	632.000000
283.000000	636.000000
283.250000	606.000000
283.500000	626.000000
283.750000	632.000000
284.000000	591.000000
284.250000	651.000000
284.500000	638.000000
284.750000	613.000000
285.000000	642.000000
285.250000	637.000000
285.500000	629.000000
285.750000	613.000000
286.000000	609.000000
286.250000	624.000000
286.500000	613.000000
286.750000	623.000000
287.000000	623.000000
287.250000	614.000000
287.500000	630.000000
287.750000	612.000000
288.000000	614.000000
288.250000	616.000000
288.500000	601.000000
288.750000	616.000000
289.000000	600.000000
289.250000	628.000000
289.500000	626.000000
289.750000	601.000000
290.000000	587.000000
290.250000	595.000000
290.500000	630.000000
290.750000	591.000000
291.000000	597.000000
291.250000	620.000000
291.500000	614.000000
291.750000	593.000000
292.000000	598.000000
292.250000	596.000000
292.500000	599.000000
292.750000	592.000000
293.000000	605.000000
293.250000	602.000000
293.500000	588.000000
293.750000	595.000000
294.000000	578.000000
294.250000	592.000000
294.500000	573.000000
294.750000	560.000000
295.000000	564.000000
295.250000	561.000000
295.500000	576.000000
295.750000	562.000000
296.000000	587.000000
296.250000	577.000000
296.500000	586.000000
296.750000	578.000000
297.000000	608.000000
297.250000	558.000000
297.500000	563.000000
297.750000	576.000000
298.000000	548.000000
298.250000	562.000000
298.500000	550.000000
298.750000	574.000000
299.000000	583.000000
299.250000	524.000000
299.500000	559.000000
299.750000	543.000000
300.000000	549.000000
300.250000	554.000000
300.500000	532.000000
300.750000	554.000000
301.000000	594.000000
301.250000	556.000000
301.500000	544.000000
301.750000	539.000000
302.000000	531.000000
302.250000	577.000000
302.500000	522.000000
302.750000	580.000000
303.000000	547.000000
303.250000	545.000000
303.500000	530.000000
303.750000	510.000000
304.000000	532.000000
304.250000	542.000000
304.500000	520.000000
304.750000	508.000000
305.000000	540.000000
305.250000	517.000000
305.500000	531.000000
305.750000	498.000000
306.000000	512.000000
306.250000	492.000000
306.500000	538.000000
306.750000	513.000000
307.000000	502.000000
307.250000	504.000000
307.500000	509.000000
307.750000	486.000000
308.000000	496.000000
308.250000	504.000000
308.500000	496.000000
308.750000	496.000000
309.000000	501.000000
309.250000	498.000000
309.500000	470.000000
309.750000	512.000000
310.000000	485.000000
310.250000	479.000000
310.500000	494.000000
310.750000	494.000000
311.000000	466.000000
311.250000	472.000000
311.500000	481.000000
311.750000	465.000000
312.000000	470.000000
312.250000	488.000000
312.500000	463.000000
312.750000	483.000000
313.000000	467.000000
313.250000	454.000000
313.500000	482.000000
313.750000	476.000000
314.000000	455.000000
314.250000	495.000000
314.500000	452.000000
314.750000	452.000000
315.000000	454.000000
315.250000	451.000000
315.500000	437.000000
315.750000	460.000000
316.000000	454.000000
316.250000	441.000000
316.500000	442.000000
316.750000	435.000000
317.000000	446.000000
317.250000	445.000000
317.500000	431.000000
317.750000	417.000000
318.000000	413.000000
318.250000	432.000000
318.500000	442.000000
318.750000	430.000000
319.000000	442.000000
319.250000	430.000000
319.500000	397.000000
319.750000	433.000000
320.000000	420.000000
320.250000	416.000000
320.500000	412.000000
320.750000	413.000000
321.000000	428.000000
321.250000	399.000000
321.500000	406.000000
321.750000	398.000000
322.000000	384.000000
322.250000	412.000000
322.500000	395.000000
322.750000	387.000000
323.000000	400.000000
323.250000	418.000000
323.500000	382.000000
323.750000	391.000000
324.000000	397.000000
324.250000	385.000000
324.500000	401.000000
324.750000	392.000000
325.000000	384.000000
325.250000	390.000000
325.500000	380.000000
325.750000	374.000000
326.000000	379.000000
326.250000	410.000000
326.500000	384.000000
326.750000	378.000000
327.000000	390.000000
327.250000	352.000000
327.500000	375.000000
327.750000	385.000000
328.000000	378.000000
328.250000	368.000000
328.500000	358.000000
328.750000	377.000000
329.000000	371.000000
329.250000	372.000000
329.500000	360.000000
329.750000	355.000000
330.000000	380.000000
330.250000	372.000000
330.500000	361.000000
330.750000	369.000000
331.000000	357.000000
331.250000	378.000000
331.500000	349.000000
331.750000	305.000000
332.000000	321.000000
332.250000	337.000000
332.500000	333.000000
332.750000	326.000000
333.000000	320.000000
333.250000	328.000000
333.500000	307.000000
333.750000	314.000000
334.000000	311.000000
334.250000	331.000000
334.500000	330.000000
334.750000	296.000000
335.000000	302.000000
335.250000	313.000000
335.500000	307.000000
335.750000	279.000000
336.000000	323.000000
336.250000	304.000000
336.500000	292.000000
336.750000	286.000000
337.000000	304.000000
337.250000	271.000000
337.500000	296.000000
337.750000	302.000000
338.000000	290.000000
338.250000	277.000000
338.500000	269.000000
338.750000	295.000000
339.000000	267.000000
339.250000	258.000000
339.500000	257.000000
339.750000	264.000000
340.000000	264.000000
340.250000	248.000000
340.500000	258.000000
340.750000	250.000000
341.000000	232.000000
341.250000	223.000000
341.500000	234.000000
341.750000	231.000000
342.000000	249.000000
342.250000	213.000000
342.500000	233.000000
342.750000	197.000000
343.000000	186.000000
