Data: venerdì 15 maggio 2020	Ora: 11:58
Analizzatore  1: TOF TOF LR	Analizzatore  2: R66 ROUTE66_HR_XPS	
pass energy/rall 1: 0.00	pass energy/rall 2: 40.00	
******************************************************
Scansione:    angolo polare
Min (eV): 250.00	Max (eV): 343.00	Step (eV): 0.25	
kinetic energy 1 (eV): 0.00	kinetic energy 2 (eV): 1198.70
polar angle (deg): 343.00	X axis (mm): 580.50
*******************  R66 parameters ********************
Step in ch_x_eV: 10	Ch x eV @ Ep=1eV: 5236
binned channels: 14	same region acquisitions: 41
******************************************************
Acq. time (s):  1.00	Number of scans:  1	Total acq. time (s):  1.00
******************************************************
250.000000	275.000000
250.250000	300.000000
250.500000	300.000000
250.750000	332.000000
251.000000	367.000000
251.250000	348.000000
251.500000	434.000000
251.750000	437.000000
252.000000	460.000000
252.250000	507.000000
252.500000	544.000000
252.750000	538.000000
253.000000	581.000000
253.250000	567.000000
253.500000	620.000000
253.750000	628.000000
254.000000	647.000000
254.250000	614.000000
254.500000	609.000000
254.750000	684.000000
255.000000	665.000000
255.250000	698.000000
255.500000	705.000000
255.750000	736.000000
256.000000	709.000000
256.250000	712.000000
256.500000	722.000000
256.750000	727.000000
257.000000	711.000000
257.250000	734.000000
257.500000	704.000000
257.750000	694.000000
258.000000	738.000000
258.250000	698.000000
258.500000	684.000000
258.750000	691.000000
259.000000	720.000000
259.250000	724.000000
259.500000	700.000000
259.750000	714.000000
260.000000	684.000000
260.250000	688.000000
260.500000	711.000000
260.750000	696.000000
261.000000	698.000000
261.250000	726.000000
261.500000	736.000000
261.750000	735.000000
262.000000	745.000000
262.250000	708.000000
262.500000	694.000000
262.750000	741.000000
263.000000	724.000000
263.250000	711.000000
263.500000	694.000000
263.750000	688.000000
264.000000	661.000000
264.250000	638.000000
264.500000	702.000000
264.750000	652.000000
265.000000	680.000000
265.250000	696.000000
265.500000	742.000000
265.750000	717.000000
266.000000	634.000000
266.250000	698.000000
266.500000	667.000000
266.750000	715.000000
267.000000	697.000000
267.250000	718.000000
267.500000	707.000000
267.750000	708.000000
268.000000	643.000000
268.250000	667.000000
268.500000	633.000000
268.750000	695.000000
269.000000	692.000000
269.250000	694.000000
269.500000	692.000000
269.750000	609.000000
270.000000	635.000000
270.250000	680.000000
270.500000	700.000000
270.750000	671.000000
271.000000	643.000000
271.250000	660.000000
271.500000	657.000000
271.750000	628.000000
272.000000	660.000000
272.250000	702.000000
272.500000	671.000000
272.750000	635.000000
273.000000	676.000000
273.250000	692.000000
273.500000	661.000000
273.750000	638.000000
274.000000	646.000000
274.250000	669.000000
274.500000	683.000000
274.750000	666.000000
275.000000	626.000000
275.250000	607.000000
275.500000	602.000000
275.750000	633.000000
276.000000	654.000000
276.250000	648.000000
276.500000	630.000000
276.750000	627.000000
277.000000	642.000000
277.250000	642.000000
277.500000	637.000000
277.750000	659.000000
278.000000	639.000000
278.250000	628.000000
278.500000	643.000000
278.750000	610.000000
279.000000	610.000000
279.250000	579.000000
279.500000	615.000000
279.750000	554.000000
280.000000	609.000000
280.250000	685.000000
280.500000	605.000000
280.750000	643.000000
281.000000	608.000000
281.250000	606.000000
281.500000	603.000000
281.750000	595.000000
282.000000	564.000000
282.250000	627.000000
282.500000	616.000000
282.750000	591.000000
283.000000	593.000000
283.250000	591.000000
283.500000	551.000000
283.750000	557.000000
284.000000	593.000000
284.250000	568.000000
284.500000	612.000000
284.750000	566.000000
285.000000	564.000000
285.250000	554.000000
285.500000	586.000000
285.750000	596.000000
286.000000	567.000000
286.250000	551.000000
286.500000	573.000000
286.750000	572.000000
287.000000	570.000000
287.250000	551.000000
287.500000	561.000000
287.750000	559.000000
288.000000	542.000000
288.250000	551.000000
288.500000	581.000000
288.750000	549.000000
289.000000	500.000000
289.250000	558.000000
289.500000	549.000000
289.750000	550.000000
290.000000	525.000000
290.250000	544.000000
290.500000	531.000000
290.750000	534.000000
291.000000	557.000000
291.250000	575.000000
291.500000	499.000000
291.750000	586.000000
292.000000	538.000000
292.250000	514.000000
292.500000	478.000000
292.750000	516.000000
293.000000	491.000000
293.250000	506.000000
293.500000	501.000000
293.750000	518.000000
294.000000	475.000000
294.250000	502.000000
294.500000	481.000000
294.750000	454.000000
295.000000	495.000000
295.250000	513.000000
295.500000	478.000000
295.750000	457.000000
296.000000	472.000000
296.250000	502.000000
296.500000	465.000000
296.750000	461.000000
297.000000	439.000000
297.250000	473.000000
297.500000	446.000000
297.750000	437.000000
298.000000	465.000000
298.250000	455.000000
298.500000	455.000000
298.750000	462.000000
299.000000	438.000000
299.250000	444.000000
299.500000	430.000000
299.750000	456.000000
300.000000	448.000000
300.250000	423.000000
300.500000	431.000000
300.750000	426.000000
301.000000	393.000000
301.250000	415.000000
301.500000	439.000000
301.750000	412.000000
302.000000	425.000000
302.250000	414.000000
302.500000	415.000000
302.750000	368.000000
303.000000	347.000000
303.250000	376.000000
303.500000	409.000000
303.750000	395.000000
304.000000	373.000000
304.250000	402.000000
304.500000	377.000000
304.750000	346.000000
305.000000	372.000000
305.250000	403.000000
305.500000	387.000000
305.750000	365.000000
306.000000	394.000000
306.250000	383.000000
306.500000	328.000000
306.750000	366.000000
307.000000	336.000000
307.250000	317.000000
307.500000	334.000000
307.750000	314.000000
308.000000	349.000000
308.250000	306.000000
308.500000	318.000000
308.750000	324.000000
309.000000	297.000000
309.250000	330.000000
309.500000	302.000000
309.750000	345.000000
310.000000	362.000000
310.250000	307.000000
310.500000	288.000000
310.750000	323.000000
311.000000	279.000000
311.250000	320.000000
311.500000	305.000000
311.750000	271.000000
312.000000	255.000000
312.250000	268.000000
312.500000	286.000000
312.750000	279.000000
313.000000	287.000000
313.250000	279.000000
313.500000	240.000000
313.750000	243.000000
314.000000	237.000000
314.250000	262.000000
314.500000	258.000000
314.750000	266.000000
315.000000	224.000000
315.250000	231.000000
315.500000	204.000000
315.750000	242.000000
316.000000	237.000000
316.250000	242.000000
316.500000	234.000000
316.750000	226.000000
317.000000	214.000000
317.250000	234.000000
317.500000	182.000000
317.750000	230.000000
318.000000	197.000000
318.250000	219.000000
318.500000	190.000000
318.750000	184.000000
319.000000	195.000000
319.250000	174.000000
319.500000	211.000000
319.750000	192.000000
320.000000	182.000000
320.250000	172.000000
320.500000	163.000000
320.750000	169.000000
321.000000	174.000000
321.250000	180.000000
321.500000	150.000000
321.750000	145.000000
322.000000	151.000000
322.250000	140.000000
322.500000	160.000000
322.750000	156.000000
323.000000	153.000000
323.250000	143.000000
323.500000	125.000000
323.750000	149.000000
324.000000	129.000000
324.250000	113.000000
324.500000	129.000000
324.750000	113.000000
325.000000	120.000000
325.250000	131.000000
325.500000	122.000000
325.750000	110.000000
326.000000	105.000000
326.250000	105.000000
326.500000	100.000000
326.750000	93.000000
327.000000	98.000000
327.250000	111.000000
327.500000	89.000000
327.750000	95.000000
328.000000	92.000000
328.250000	72.000000
328.500000	78.000000
328.750000	87.000000
329.000000	88.000000
329.250000	95.000000
329.500000	74.000000
329.750000	94.000000
330.000000	68.000000
330.250000	84.000000
330.500000	67.000000
330.750000	71.000000
331.000000	58.000000
331.250000	72.000000
331.500000	56.000000
331.750000	66.000000
332.000000	57.000000
332.250000	51.000000
332.500000	60.000000
332.750000	57.000000
333.000000	47.000000
333.250000	47.000000
333.500000	51.000000
333.750000	44.000000
334.000000	33.000000
334.250000	41.000000
334.500000	32.000000
334.750000	34.000000
335.000000	35.000000
335.250000	34.000000
335.500000	22.000000
335.750000	27.000000
336.000000	27.000000
336.250000	19.000000
336.500000	29.000000
336.750000	27.000000
337.000000	24.000000
337.250000	22.000000
337.500000	22.000000
337.750000	15.000000
338.000000	15.000000
338.250000	26.000000
338.500000	21.000000
338.750000	17.000000
339.000000	15.000000
339.250000	12.000000
339.500000	10.000000
339.750000	10.000000
340.000000	12.000000
340.250000	7.000000
340.500000	13.000000
340.750000	10.000000
341.000000	7.000000
341.250000	10.000000
341.500000	8.000000
341.750000	8.000000
342.000000	8.000000
342.250000	5.000000
342.500000	10.000000
342.750000	6.000000
343.000000	6.000000
