Data: venerdì 15 maggio 2020	Ora: 13:08
Analizzatore  1: TOF TOF LR	Analizzatore  2: R66 ROUTE66_HR_XPS	
pass energy/rall 1: 0.00	pass energy/rall 2: 40.00	
******************************************************
Scansione:    angolo polare
Min (eV): 250.00	Max (eV): 343.00	Step (eV): 0.25	
kinetic energy 1 (eV): 0.00	kinetic energy 2 (eV): 1198.70
polar angle (deg): 343.00	X axis (mm): 580.50
*******************  R66 parameters ********************
Step in ch_x_eV: 10	Ch x eV @ Ep=1eV: 5236
binned channels: 14	same region acquisitions: 41
******************************************************
Acq. time (s):  1.00	Number of scans:  1	Total acq. time (s):  1.00
******************************************************
250.000000	157.000000
250.250000	183.000000
250.500000	195.000000
250.750000	227.000000
251.000000	206.000000
251.250000	233.000000
251.500000	233.000000
251.750000	258.000000
252.000000	281.000000
252.250000	323.000000
252.500000	345.000000
252.750000	373.000000
253.000000	375.000000
253.250000	401.000000
253.500000	367.000000
253.750000	412.000000
254.000000	396.000000
254.250000	429.000000
254.500000	532.000000
254.750000	479.000000
255.000000	472.000000
255.250000	567.000000
255.500000	534.000000
255.750000	525.000000
256.000000	537.000000
256.250000	575.000000
256.500000	538.000000
256.750000	615.000000
257.000000	575.000000
257.250000	601.000000
257.500000	621.000000
257.750000	571.000000
258.000000	557.000000
258.250000	595.000000
258.500000	642.000000
258.750000	601.000000
259.000000	609.000000
259.250000	655.000000
259.500000	592.000000
259.750000	670.000000
260.000000	606.000000
260.250000	591.000000
260.500000	664.000000
260.750000	637.000000
261.000000	680.000000
261.250000	631.000000
261.500000	660.000000
261.750000	684.000000
262.000000	656.000000
262.250000	700.000000
262.500000	706.000000
262.750000	678.000000
263.000000	668.000000
263.250000	653.000000
263.500000	619.000000
263.750000	658.000000
264.000000	679.000000
264.250000	690.000000
264.500000	658.000000
264.750000	682.000000
265.000000	699.000000
265.250000	688.000000
265.500000	675.000000
265.750000	677.000000
266.000000	678.000000
266.250000	702.000000
266.500000	729.000000
266.750000	699.000000
267.000000	709.000000
267.250000	700.000000
267.500000	640.000000
267.750000	733.000000
268.000000	671.000000
268.250000	651.000000
268.500000	670.000000
268.750000	659.000000
269.000000	638.000000
269.250000	656.000000
269.500000	642.000000
269.750000	662.000000
270.000000	647.000000
270.250000	663.000000
270.500000	672.000000
270.750000	692.000000
271.000000	664.000000
271.250000	675.000000
271.500000	634.000000
271.750000	662.000000
272.000000	663.000000
272.250000	648.000000
272.500000	651.000000
272.750000	654.000000
273.000000	646.000000
273.250000	668.000000
273.500000	623.000000
273.750000	634.000000
274.000000	636.000000
274.250000	629.000000
274.500000	587.000000
274.750000	629.000000
275.000000	651.000000
275.250000	590.000000
275.500000	639.000000
275.750000	603.000000
276.000000	647.000000
276.250000	615.000000
276.500000	606.000000
276.750000	659.000000
277.000000	619.000000
277.250000	651.000000
277.500000	599.000000
277.750000	656.000000
278.000000	631.000000
278.250000	623.000000
278.500000	602.000000
278.750000	580.000000
279.000000	616.000000
279.250000	589.000000
279.500000	583.000000
279.750000	581.000000
280.000000	594.000000
280.250000	562.000000
280.500000	564.000000
280.750000	633.000000
281.000000	609.000000
281.250000	618.000000
281.500000	621.000000
281.750000	599.000000
282.000000	644.000000
282.250000	595.000000
282.500000	553.000000
282.750000	541.000000
283.000000	552.000000
283.250000	554.000000
283.500000	596.000000
283.750000	588.000000
284.000000	572.000000
284.250000	558.000000
284.500000	562.000000
284.750000	583.000000
285.000000	561.000000
285.250000	585.000000
285.500000	602.000000
285.750000	553.000000
286.000000	525.000000
286.250000	583.000000
286.500000	529.000000
286.750000	540.000000
287.000000	582.000000
287.250000	575.000000
287.500000	577.000000
287.750000	537.000000
288.000000	547.000000
288.250000	542.000000
288.500000	533.000000
288.750000	535.000000
289.000000	577.000000
289.250000	537.000000
289.500000	565.000000
289.750000	539.000000
290.000000	565.000000
290.250000	529.000000
290.500000	504.000000
290.750000	554.000000
291.000000	544.000000
291.250000	556.000000
291.500000	495.000000
291.750000	503.000000
292.000000	539.000000
292.250000	487.000000
292.500000	480.000000
292.750000	519.000000
293.000000	575.000000
293.250000	544.000000
293.500000	464.000000
293.750000	459.000000
294.000000	540.000000
294.250000	494.000000
294.500000	510.000000
294.750000	482.000000
295.000000	499.000000
295.250000	476.000000
295.500000	493.000000
295.750000	507.000000
296.000000	479.000000
296.250000	505.000000
296.500000	496.000000
296.750000	475.000000
297.000000	494.000000
297.250000	494.000000
297.500000	504.000000
297.750000	472.000000
298.000000	510.000000
298.250000	481.000000
298.500000	467.000000
298.750000	463.000000
299.000000	450.000000
299.250000	490.000000
299.500000	476.000000
299.750000	457.000000
300.000000	392.000000
300.250000	499.000000
300.500000	464.000000
300.750000	447.000000
301.000000	459.000000
301.250000	524.000000
301.500000	509.000000
301.750000	437.000000
302.000000	453.000000
302.250000	455.000000
302.500000	426.000000
302.750000	465.000000
303.000000	479.000000
303.250000	519.000000
303.500000	435.000000
303.750000	408.000000
304.000000	447.000000
304.250000	445.000000
304.500000	452.000000
304.750000	449.000000
305.000000	452.000000
305.250000	453.000000
305.500000	460.000000
305.750000	406.000000
306.000000	470.000000
306.250000	449.000000
306.500000	435.000000
306.750000	416.000000
307.000000	408.000000
307.250000	433.000000
307.500000	385.000000
307.750000	432.000000
308.000000	453.000000
308.250000	458.000000
308.500000	396.000000
308.750000	448.000000
309.000000	418.000000
309.250000	432.000000
309.500000	439.000000
309.750000	440.000000
310.000000	413.000000
310.250000	428.000000
310.500000	414.000000
310.750000	459.000000
311.000000	395.000000
311.250000	403.000000
311.500000	411.000000
311.750000	397.000000
312.000000	395.000000
312.250000	425.000000
312.500000	395.000000
312.750000	418.000000
313.000000	435.000000
313.250000	397.000000
313.500000	408.000000
313.750000	369.000000
314.000000	420.000000
314.250000	434.000000
314.500000	389.000000
314.750000	404.000000
315.000000	411.000000
315.250000	441.000000
315.500000	399.000000
315.750000	428.000000
316.000000	413.000000
316.250000	392.000000
316.500000	388.000000
316.750000	390.000000
317.000000	403.000000
317.250000	449.000000
317.500000	387.000000
317.750000	388.000000
318.000000	399.000000
318.250000	399.000000
318.500000	373.000000
318.750000	374.000000
319.000000	374.000000
319.250000	399.000000
319.500000	394.000000
319.750000	390.000000
320.000000	420.000000
320.250000	376.000000
320.500000	355.000000
320.750000	423.000000
321.000000	383.000000
321.250000	384.000000
321.500000	369.000000
321.750000	364.000000
322.000000	369.000000
322.250000	387.000000
322.500000	387.000000
322.750000	363.000000
323.000000	358.000000
323.250000	352.000000
323.500000	348.000000
323.750000	378.000000
324.000000	368.000000
324.250000	376.000000
324.500000	393.000000
324.750000	367.000000
325.000000	372.000000
325.250000	349.000000
325.500000	364.000000
325.750000	355.000000
326.000000	359.000000
326.250000	348.000000
326.500000	381.000000
326.750000	378.000000
327.000000	354.000000
327.250000	319.000000
327.500000	332.000000
327.750000	361.000000
328.000000	334.000000
328.250000	346.000000
328.500000	340.000000
328.750000	352.000000
329.000000	344.000000
329.250000	323.000000
329.500000	325.000000
329.750000	328.000000
330.000000	330.000000
330.250000	343.000000
330.500000	324.000000
330.750000	318.000000
331.000000	313.000000
331.250000	327.000000
331.500000	329.000000
331.750000	309.000000
332.000000	325.000000
332.250000	321.000000
332.500000	335.000000
332.750000	317.000000
333.000000	303.000000
333.250000	321.000000
333.500000	319.000000
333.750000	313.000000
334.000000	310.000000
334.250000	286.000000
334.500000	288.000000
334.750000	352.000000
335.000000	295.000000
335.250000	247.000000
335.500000	307.000000
335.750000	363.000000
336.000000	297.000000
336.250000	284.000000
336.500000	311.000000
336.750000	265.000000
337.000000	272.000000
337.250000	272.000000
337.500000	283.000000
337.750000	307.000000
338.000000	281.000000
338.250000	305.000000
338.500000	287.000000
338.750000	253.000000
339.000000	269.000000
339.250000	287.000000
339.500000	230.000000
339.750000	259.000000
340.000000	280.000000
340.250000	255.000000
340.500000	248.000000
340.750000	247.000000
341.000000	253.000000
341.250000	229.000000
341.500000	244.000000
341.750000	203.000000
342.000000	227.000000
342.250000	228.000000
342.500000	192.000000
342.750000	214.000000
343.000000	187.000000
