Data: venerdì 15 maggio 2020	Ora: 11:36
Analizzatore  1: TOF TOF LR	Analizzatore  2: R66 ROUTE66_HR_XPS	
pass energy/rall 1: 0.00	pass energy/rall 2: 40.00	
******************************************************
Scansione:    angolo polare
Min (eV): 250.00	Max (eV): 343.00	Step (eV): 0.25	
kinetic energy 1 (eV): 0.00	kinetic energy 2 (eV): 1198.70
polar angle (deg): 343.00	X axis (mm): 580.50
*******************  R66 parameters ********************
Step in ch_x_eV: 10	Ch x eV @ Ep=1eV: 5236
binned channels: 14	same region acquisitions: 41
******************************************************
Acq. time (s):  1.00	Number of scans:  1	Total acq. time (s):  1.00
******************************************************
250.000000	83.000000
250.250000	86.000000
250.500000	90.000000
250.750000	102.000000
251.000000	122.000000
251.250000	107.000000
251.500000	114.000000
251.750000	118.000000
252.000000	121.000000
252.250000	136.000000
252.500000	150.000000
252.750000	142.000000
253.000000	158.000000
253.250000	139.000000
253.500000	166.000000
253.750000	167.000000
254.000000	191.000000
254.250000	150.000000
254.500000	193.000000
254.750000	204.000000
255.000000	218.000000
255.250000	233.000000
255.500000	245.000000
255.750000	287.000000
256.000000	273.000000
256.250000	278.000000
256.500000	272.000000
256.750000	290.000000
257.000000	271.000000
257.250000	355.000000
257.500000	359.000000
257.750000	362.000000
258.000000	410.000000
258.250000	421.000000
258.500000	430.000000
258.750000	422.000000
259.000000	485.000000
259.250000	391.000000
259.500000	453.000000
259.750000	506.000000
260.000000	465.000000
260.250000	490.000000
260.500000	524.000000
260.750000	504.000000
261.000000	553.000000
261.250000	527.000000
261.500000	561.000000
261.750000	542.000000
262.000000	584.000000
262.250000	574.000000
262.500000	640.000000
262.750000	629.000000
263.000000	638.000000
263.250000	631.000000
263.500000	685.000000
263.750000	653.000000
264.000000	645.000000
264.250000	642.000000
264.500000	653.000000
264.750000	656.000000
265.000000	654.000000
265.250000	664.000000
265.500000	738.000000
265.750000	659.000000
266.000000	631.000000
266.250000	708.000000
266.500000	698.000000
266.750000	703.000000
267.000000	681.000000
267.250000	680.000000
267.500000	637.000000
267.750000	667.000000
268.000000	677.000000
268.250000	660.000000
268.500000	666.000000
268.750000	649.000000
269.000000	610.000000
269.250000	615.000000
269.500000	613.000000
269.750000	659.000000
270.000000	605.000000
270.250000	623.000000
270.500000	667.000000
270.750000	588.000000
271.000000	555.000000
271.250000	584.000000
271.500000	585.000000
271.750000	599.000000
272.000000	539.000000
272.250000	545.000000
272.500000	541.000000
272.750000	539.000000
273.000000	496.000000
273.250000	511.000000
273.500000	503.000000
273.750000	518.000000
274.000000	492.000000
274.250000	471.000000
274.500000	478.000000
274.750000	414.000000
275.000000	487.000000
275.250000	475.000000
275.500000	449.000000
275.750000	451.000000
276.000000	405.000000
276.250000	454.000000
276.500000	378.000000
276.750000	423.000000
277.000000	377.000000
277.250000	388.000000
277.500000	406.000000
277.750000	396.000000
278.000000	390.000000
278.250000	391.000000
278.500000	345.000000
278.750000	344.000000
279.000000	354.000000
279.250000	324.000000
279.500000	350.000000
279.750000	337.000000
280.000000	339.000000
280.250000	347.000000
280.500000	312.000000
280.750000	319.000000
281.000000	266.000000
281.250000	308.000000
281.500000	324.000000
281.750000	268.000000
282.000000	238.000000
282.250000	266.000000
282.500000	269.000000
282.750000	282.000000
283.000000	250.000000
283.250000	257.000000
283.500000	229.000000
283.750000	237.000000
284.000000	236.000000
284.250000	206.000000
284.500000	222.000000
284.750000	228.000000
285.000000	215.000000
285.250000	198.000000
285.500000	210.000000
285.750000	218.000000
286.000000	195.000000
286.250000	200.000000
286.500000	195.000000
286.750000	194.000000
287.000000	201.000000
287.250000	166.000000
287.500000	172.000000
287.750000	158.000000
288.000000	166.000000
288.250000	161.000000
288.500000	186.000000
288.750000	156.000000
289.000000	167.000000
289.250000	152.000000
289.500000	143.000000
289.750000	142.000000
290.000000	143.000000
290.250000	141.000000
290.500000	134.000000
290.750000	133.000000
291.000000	136.000000
291.250000	121.000000
291.500000	144.000000
291.750000	160.000000
292.000000	110.000000
292.250000	133.000000
292.500000	113.000000
292.750000	117.000000
293.000000	109.000000
293.250000	117.000000
293.500000	101.000000
293.750000	111.000000
294.000000	88.000000
294.250000	103.000000
294.500000	99.000000
294.750000	101.000000
295.000000	96.000000
295.250000	97.000000
295.500000	94.000000
295.750000	83.000000
296.000000	91.000000
296.250000	99.000000
296.500000	70.000000
296.750000	97.000000
297.000000	90.000000
297.250000	94.000000
297.500000	75.000000
297.750000	82.000000
298.000000	81.000000
298.250000	68.000000
298.500000	79.000000
298.750000	76.000000
299.000000	79.000000
299.250000	69.000000
299.500000	77.000000
299.750000	72.000000
300.000000	57.000000
300.250000	79.000000
300.500000	61.000000
300.750000	66.000000
301.000000	62.000000
301.250000	60.000000
301.500000	53.000000
301.750000	48.000000
302.000000	62.000000
302.250000	58.000000
302.500000	57.000000
302.750000	54.000000
303.000000	60.000000
303.250000	46.000000
303.500000	48.000000
303.750000	66.000000
304.000000	62.000000
304.250000	54.000000
304.500000	51.000000
304.750000	43.000000
305.000000	51.000000
305.250000	38.000000
305.500000	53.000000
305.750000	37.000000
306.000000	46.000000
306.250000	46.000000
306.500000	43.000000
306.750000	43.000000
307.000000	39.000000
307.250000	42.000000
307.500000	27.000000
307.750000	43.000000
308.000000	42.000000
308.250000	39.000000
308.500000	38.000000
308.750000	50.000000
309.000000	32.000000
309.250000	40.000000
309.500000	36.000000
309.750000	32.000000
310.000000	39.000000
310.250000	31.000000
310.500000	32.000000
310.750000	27.000000
311.000000	30.000000
311.250000	26.000000
311.500000	33.000000
311.750000	32.000000
312.000000	33.000000
312.250000	23.000000
312.500000	24.000000
312.750000	30.000000
313.000000	24.000000
313.250000	33.000000
313.500000	23.000000
313.750000	22.000000
314.000000	31.000000
314.250000	24.000000
314.500000	25.000000
314.750000	27.000000
315.000000	31.000000
315.250000	22.000000
315.500000	26.000000
315.750000	21.000000
316.000000	21.000000
316.250000	30.000000
316.500000	30.000000
316.750000	22.000000
317.000000	26.000000
317.250000	14.000000
317.500000	16.000000
317.750000	18.000000
318.000000	23.000000
318.250000	15.000000
318.500000	34.000000
318.750000	25.000000
319.000000	24.000000
319.250000	13.000000
319.500000	18.000000
319.750000	21.000000
320.000000	14.000000
320.250000	18.000000
320.500000	12.000000
320.750000	12.000000
321.000000	30.000000
321.250000	15.000000
321.500000	21.000000
321.750000	13.000000
322.000000	10.000000
322.250000	18.000000
322.500000	15.000000
322.750000	15.000000
323.000000	11.000000
323.250000	20.000000
323.500000	22.000000
323.750000	18.000000
324.000000	12.000000
324.250000	10.000000
324.500000	21.000000
324.750000	22.000000
325.000000	12.000000
325.250000	13.000000
325.500000	16.000000
325.750000	14.000000
326.000000	19.000000
326.250000	13.000000
326.500000	19.000000
326.750000	15.000000
327.000000	15.000000
327.250000	18.000000
327.500000	7.000000
327.750000	18.000000
328.000000	16.000000
328.250000	19.000000
328.500000	12.000000
328.750000	11.000000
329.000000	9.000000
329.250000	15.000000
329.500000	13.000000
329.750000	17.000000
330.000000	7.000000
330.250000	14.000000
330.500000	12.000000
330.750000	20.000000
331.000000	15.000000
331.250000	11.000000
331.500000	9.000000
331.750000	12.000000
332.000000	8.000000
332.250000	11.000000
332.500000	9.000000
332.750000	17.000000
333.000000	15.000000
333.250000	8.000000
333.500000	10.000000
333.750000	8.000000
334.000000	13.000000
334.250000	10.000000
334.500000	14.000000
334.750000	4.000000
335.000000	15.000000
335.250000	5.000000
335.500000	7.000000
335.750000	12.000000
336.000000	9.000000
336.250000	8.000000
336.500000	15.000000
336.750000	16.000000
337.000000	8.000000
337.250000	10.000000
337.500000	12.000000
337.750000	10.000000
338.000000	5.000000
338.250000	9.000000
338.500000	8.000000
338.750000	12.000000
339.000000	8.000000
339.250000	8.000000
339.500000	9.000000
339.750000	7.000000
340.000000	9.000000
340.250000	8.000000
340.500000	11.000000
340.750000	9.000000
341.000000	7.000000
341.250000	6.000000
341.500000	7.000000
341.750000	10.000000
342.000000	4.000000
342.250000	5.000000
342.500000	7.000000
342.750000	5.000000
343.000000	6.000000
