Data: venerdì 15 maggio 2020	Ora: 12:57
Analizzatore  1: TOF TOF LR	Analizzatore  2: R66 ROUTE66_HR_XPS	
pass energy/rall 1: 0.00	pass energy/rall 2: 40.00	
******************************************************
Scansione:    angolo polare
Min (eV): 250.00	Max (eV): 343.00	Step (eV): 0.25	
kinetic energy 1 (eV): 0.00	kinetic energy 2 (eV): 1198.70
polar angle (deg): 343.00	X axis (mm): 580.50
*******************  R66 parameters ********************
Step in ch_x_eV: 10	Ch x eV @ Ep=1eV: 5236
binned channels: 14	same region acquisitions: 41
******************************************************
Acq. time (s):  1.00	Number of scans:  1	Total acq. time (s):  1.00
******************************************************
250.000000	179.000000
250.250000	233.000000
250.500000	245.000000
250.750000	262.000000
251.000000	270.000000
251.250000	330.000000
251.500000	325.000000
251.750000	326.000000
252.000000	355.000000
252.250000	420.000000
252.500000	409.000000
252.750000	428.000000
253.000000	449.000000
253.250000	481.000000
253.500000	481.000000
253.750000	518.000000
254.000000	555.000000
254.250000	568.000000
254.500000	567.000000
254.750000	594.000000
255.000000	616.000000
255.250000	628.000000
255.500000	608.000000
255.750000	642.000000
256.000000	621.000000
256.250000	648.000000
256.500000	616.000000
256.750000	693.000000
257.000000	637.000000
257.250000	682.000000
257.500000	670.000000
257.750000	712.000000
258.000000	691.000000
258.250000	696.000000
258.500000	619.000000
258.750000	663.000000
259.000000	662.000000
259.250000	676.000000
259.500000	650.000000
259.750000	622.000000
260.000000	650.000000
260.250000	675.000000
260.500000	671.000000
260.750000	716.000000
261.000000	666.000000
261.250000	688.000000
261.500000	706.000000
261.750000	728.000000
262.000000	701.000000
262.250000	682.000000
262.500000	692.000000
262.750000	692.000000
263.000000	679.000000
263.250000	679.000000
263.500000	729.000000
263.750000	693.000000
264.000000	664.000000
264.250000	673.000000
264.500000	697.000000
264.750000	721.000000
265.000000	698.000000
265.250000	702.000000
265.500000	630.000000
265.750000	659.000000
266.000000	653.000000
266.250000	660.000000
266.500000	672.000000
266.750000	707.000000
267.000000	655.000000
267.250000	685.000000
267.500000	701.000000
267.750000	698.000000
268.000000	660.000000
268.250000	646.000000
268.500000	683.000000
268.750000	690.000000
269.000000	621.000000
269.250000	680.000000
269.500000	638.000000
269.750000	656.000000
270.000000	750.000000
270.250000	657.000000
270.500000	707.000000
270.750000	659.000000
271.000000	656.000000
271.250000	676.000000
271.500000	650.000000
271.750000	660.000000
272.000000	650.000000
272.250000	669.000000
272.500000	621.000000
272.750000	654.000000
273.000000	615.000000
273.250000	634.000000
273.500000	687.000000
273.750000	675.000000
274.000000	610.000000
274.250000	592.000000
274.500000	639.000000
274.750000	657.000000
275.000000	621.000000
275.250000	661.000000
275.500000	592.000000
275.750000	632.000000
276.000000	594.000000
276.250000	628.000000
276.500000	645.000000
276.750000	634.000000
277.000000	669.000000
277.250000	620.000000
277.500000	624.000000
277.750000	591.000000
278.000000	635.000000
278.250000	641.000000
278.500000	623.000000
278.750000	626.000000
279.000000	646.000000
279.250000	631.000000
279.500000	668.000000
279.750000	597.000000
280.000000	638.000000
280.250000	632.000000
280.500000	576.000000
280.750000	580.000000
281.000000	644.000000
281.250000	606.000000
281.500000	607.000000
281.750000	605.000000
282.000000	617.000000
282.250000	588.000000
282.500000	592.000000
282.750000	617.000000
283.000000	596.000000
283.250000	591.000000
283.500000	595.000000
283.750000	609.000000
284.000000	615.000000
284.250000	602.000000
284.500000	596.000000
284.750000	593.000000
285.000000	584.000000
285.250000	597.000000
285.500000	589.000000
285.750000	586.000000
286.000000	582.000000
286.250000	573.000000
286.500000	581.000000
286.750000	621.000000
287.000000	593.000000
287.250000	602.000000
287.500000	582.000000
287.750000	612.000000
288.000000	603.000000
288.250000	573.000000
288.500000	557.000000
288.750000	581.000000
289.000000	585.000000
289.250000	532.000000
289.500000	593.000000
289.750000	555.000000
290.000000	573.000000
290.250000	552.000000
290.500000	586.000000
290.750000	588.000000
291.000000	525.000000
291.250000	566.000000
291.500000	559.000000
291.750000	560.000000
292.000000	552.000000
292.250000	568.000000
292.500000	523.000000
292.750000	524.000000
293.000000	619.000000
293.250000	571.000000
293.500000	549.000000
293.750000	562.000000
294.000000	612.000000
294.250000	567.000000
294.500000	504.000000
294.750000	569.000000
295.000000	557.000000
295.250000	522.000000
295.500000	550.000000
295.750000	531.000000
296.000000	506.000000
296.250000	545.000000
296.500000	554.000000
296.750000	545.000000
297.000000	546.000000
297.250000	556.000000
297.500000	546.000000
297.750000	527.000000
298.000000	525.000000
298.250000	573.000000
298.500000	520.000000
298.750000	544.000000
299.000000	578.000000
299.250000	506.000000
299.500000	577.000000
299.750000	555.000000
300.000000	553.000000
300.250000	517.000000
300.500000	531.000000
300.750000	535.000000
301.000000	526.000000
301.250000	499.000000
301.500000	536.000000
301.750000	509.000000
302.000000	487.000000
302.250000	499.000000
302.500000	544.000000
302.750000	524.000000
303.000000	563.000000
303.250000	505.000000
303.500000	512.000000
303.750000	533.000000
304.000000	479.000000
304.250000	526.000000
304.500000	506.000000
304.750000	537.000000
305.000000	507.000000
305.250000	470.000000
305.500000	525.000000
305.750000	490.000000
306.000000	494.000000
306.250000	443.000000
306.500000	467.000000
306.750000	486.000000
307.000000	471.000000
307.250000	499.000000
307.500000	460.000000
307.750000	487.000000
308.000000	458.000000
308.250000	464.000000
308.500000	490.000000
308.750000	513.000000
309.000000	492.000000
309.250000	449.000000
309.500000	478.000000
309.750000	486.000000
310.000000	491.000000
310.250000	480.000000
310.500000	466.000000
310.750000	493.000000
311.000000	484.000000
311.250000	507.000000
311.500000	476.000000
311.750000	491.000000
312.000000	430.000000
312.250000	437.000000
312.500000	484.000000
312.750000	453.000000
313.000000	455.000000
313.250000	434.000000
313.500000	464.000000
313.750000	500.000000
314.000000	426.000000
314.250000	467.000000
314.500000	420.000000
314.750000	432.000000
315.000000	414.000000
315.250000	449.000000
315.500000	457.000000
315.750000	443.000000
316.000000	442.000000
316.250000	420.000000
316.500000	445.000000
316.750000	451.000000
317.000000	413.000000
317.250000	463.000000
317.500000	467.000000
317.750000	461.000000
318.000000	407.000000
318.250000	420.000000
318.500000	446.000000
318.750000	429.000000
319.000000	368.000000
319.250000	427.000000
319.500000	410.000000
319.750000	465.000000
320.000000	411.000000
320.250000	406.000000
320.500000	418.000000
320.750000	429.000000
321.000000	414.000000
321.250000	383.000000
321.500000	409.000000
321.750000	423.000000
322.000000	421.000000
322.250000	430.000000
322.500000	386.000000
322.750000	422.000000
323.000000	400.000000
323.250000	400.000000
323.500000	394.000000
323.750000	371.000000
324.000000	366.000000
324.250000	349.000000
324.500000	395.000000
324.750000	361.000000
325.000000	424.000000
325.250000	358.000000
325.500000	367.000000
325.750000	358.000000
326.000000	350.000000
326.250000	401.000000
326.500000	406.000000
326.750000	337.000000
327.000000	382.000000
327.250000	394.000000
327.500000	375.000000
327.750000	338.000000
328.000000	360.000000
328.250000	373.000000
328.500000	340.000000
328.750000	360.000000
329.000000	369.000000
329.250000	317.000000
329.500000	342.000000
329.750000	343.000000
330.000000	387.000000
330.250000	349.000000
330.500000	339.000000
330.750000	315.000000
331.000000	320.000000
331.250000	332.000000
331.500000	311.000000
331.750000	306.000000
332.000000	308.000000
332.250000	335.000000
332.500000	305.000000
332.750000	338.000000
333.000000	315.000000
333.250000	295.000000
333.500000	300.000000
333.750000	296.000000
334.000000	287.000000
334.250000	275.000000
334.500000	295.000000
334.750000	285.000000
335.000000	281.000000
335.250000	300.000000
335.500000	313.000000
335.750000	263.000000
336.000000	281.000000
336.250000	238.000000
336.500000	251.000000
336.750000	265.000000
337.000000	236.000000
337.250000	236.000000
337.500000	241.000000
337.750000	235.000000
338.000000	219.000000
338.250000	228.000000
338.500000	245.000000
338.750000	237.000000
339.000000	207.000000
339.250000	212.000000
339.500000	221.000000
339.750000	180.000000
340.000000	201.000000
340.250000	216.000000
340.500000	182.000000
340.750000	190.000000
341.000000	184.000000
341.250000	194.000000
341.500000	154.000000
341.750000	161.000000
342.000000	186.000000
342.250000	147.000000
342.500000	120.000000
342.750000	113.000000
343.000000	100.000000
