Data: venerdì 15 maggio 2020	Ora: 15:26
Analizzatore  1: TOF TOF LR	Analizzatore  2: R66 ROUTE66_HR_XPS	
pass energy/rall 1: 0.00	pass energy/rall 2: 40.00	
******************************************************
Scansione:    angolo polare
Min (eV): 250.00	Max (eV): 343.00	Step (eV): 0.25	
kinetic energy 1 (eV): 0.00	kinetic energy 2 (eV): 1198.70
polar angle (deg): 343.00	X axis (mm): 580.50
*******************  R66 parameters ********************
Step in ch_x_eV: 10	Ch x eV @ Ep=1eV: 5236
binned channels: 14	same region acquisitions: 41
******************************************************
Acq. time (s):  5.00	Number of scans:  1	Total acq. time (s):  5.00
******************************************************
250.000000	252.000000
250.250000	274.000000
250.500000	294.000000
250.750000	323.000000
251.000000	322.000000
251.250000	341.000000
251.500000	384.000000
251.750000	396.000000
252.000000	423.000000
252.250000	462.000000
252.500000	479.000000
252.750000	525.000000
253.000000	535.000000
253.250000	519.000000
253.500000	567.000000
253.750000	597.000000
254.000000	631.000000
254.250000	628.000000
254.500000	623.000000
254.750000	645.000000
255.000000	659.000000
255.250000	680.000000
255.500000	702.000000
255.750000	689.000000
256.000000	709.000000
256.250000	692.000000
256.500000	715.000000
256.750000	675.000000
257.000000	671.000000
257.250000	701.000000
257.500000	721.000000
257.750000	687.000000
258.000000	711.000000
258.250000	712.000000
258.500000	688.000000
258.750000	696.000000
259.000000	699.000000
259.250000	667.000000
259.500000	690.000000
259.750000	680.000000
260.000000	678.000000
260.250000	678.000000
260.500000	675.000000
260.750000	675.000000
261.000000	690.000000
261.250000	706.000000
261.500000	686.000000
261.750000	686.000000
262.000000	678.000000
262.250000	670.000000
262.500000	675.000000
262.750000	681.000000
263.000000	674.000000
263.250000	695.000000
263.500000	661.000000
263.750000	650.000000
264.000000	683.000000
264.250000	685.000000
264.500000	675.000000
264.750000	670.000000
265.000000	660.000000
265.250000	671.000000
265.500000	688.000000
265.750000	662.000000
266.000000	685.000000
266.250000	676.000000
266.500000	688.000000
266.750000	682.000000
267.000000	671.000000
267.250000	665.000000
267.500000	653.000000
267.750000	659.000000
268.000000	680.000000
268.250000	673.000000
268.500000	656.000000
268.750000	645.000000
269.000000	644.000000
269.250000	644.000000
269.500000	644.000000
269.750000	615.000000
270.000000	621.000000
270.250000	627.000000
270.500000	646.000000
270.750000	640.000000
271.000000	641.000000
271.250000	639.000000
271.500000	610.000000
271.750000	605.000000
272.000000	609.000000
272.250000	601.000000
272.500000	616.000000
272.750000	607.000000
273.000000	613.000000
273.250000	628.000000
273.500000	603.000000
273.750000	605.000000
274.000000	626.000000
274.250000	579.000000
274.500000	570.000000
274.750000	604.000000
275.000000	598.000000
275.250000	600.000000
275.500000	578.000000
275.750000	584.000000
276.000000	593.000000
276.250000	589.000000
276.500000	609.000000
276.750000	622.000000
277.000000	576.000000
277.250000	601.000000
277.500000	601.000000
277.750000	581.000000
278.000000	602.000000
278.250000	602.000000
278.500000	580.000000
278.750000	582.000000
279.000000	573.000000
279.250000	572.000000
279.500000	561.000000
279.750000	554.000000
280.000000	600.000000
280.250000	571.000000
280.500000	561.000000
280.750000	553.000000
281.000000	550.000000
281.250000	561.000000
281.500000	531.000000
281.750000	569.000000
282.000000	553.000000
282.250000	569.000000
282.500000	534.000000
282.750000	554.000000
283.000000	553.000000
283.250000	558.000000
283.500000	556.000000
283.750000	548.000000
284.000000	537.000000
284.250000	542.000000
284.500000	558.000000
284.750000	540.000000
285.000000	541.000000
285.250000	543.000000
285.500000	548.000000
285.750000	525.000000
286.000000	528.000000
286.250000	512.000000
286.500000	523.000000
286.750000	500.000000
287.000000	539.000000
287.250000	500.000000
287.500000	508.000000
287.750000	513.000000
288.000000	515.000000
288.250000	518.000000
288.500000	510.000000
288.750000	532.000000
289.000000	512.000000
289.250000	495.000000
289.500000	487.000000
289.750000	499.000000
290.000000	498.000000
290.250000	501.000000
290.500000	492.000000
290.750000	507.000000
291.000000	472.000000
291.250000	483.000000
291.500000	477.000000
291.750000	482.000000
292.000000	469.000000
292.250000	485.000000
292.500000	456.000000
292.750000	456.000000
293.000000	465.000000
293.250000	459.000000
293.500000	460.000000
293.750000	457.000000
294.000000	461.000000
294.250000	441.000000
294.500000	443.000000
294.750000	438.000000
295.000000	425.000000
295.250000	434.000000
295.500000	432.000000
295.750000	407.000000
296.000000	414.000000
296.250000	430.000000
296.500000	402.000000
296.750000	410.000000
297.000000	407.000000
297.250000	391.000000
297.500000	412.000000
297.750000	413.000000
298.000000	394.000000
298.250000	413.000000
298.500000	410.000000
298.750000	403.000000
299.000000	402.000000
299.250000	384.000000
299.500000	384.000000
299.750000	377.000000
300.000000	379.000000
300.250000	371.000000
300.500000	399.000000
300.750000	373.000000
301.000000	369.000000
301.250000	350.000000
301.500000	388.000000
301.750000	382.000000
302.000000	362.000000
302.250000	367.000000
302.500000	357.000000
302.750000	351.000000
303.000000	331.000000
303.250000	347.000000
303.500000	344.000000
303.750000	347.000000
304.000000	323.000000
304.250000	336.000000
304.500000	351.000000
304.750000	326.000000
305.000000	317.000000
305.250000	324.000000
305.500000	332.000000
305.750000	321.000000
306.000000	313.000000
306.250000	313.000000
306.500000	303.000000
306.750000	305.000000
307.000000	330.000000
307.250000	301.000000
307.500000	314.000000
307.750000	291.000000
308.000000	292.000000
308.250000	290.000000
308.500000	271.000000
308.750000	293.000000
309.000000	273.000000
309.250000	258.000000
309.500000	281.000000
309.750000	264.000000
310.000000	262.000000
310.250000	275.000000
310.500000	258.000000
310.750000	256.000000
311.000000	260.000000
311.250000	249.000000
311.500000	257.000000
311.750000	250.000000
312.000000	249.000000
312.250000	248.000000
312.500000	248.000000
312.750000	221.000000
313.000000	203.000000
313.250000	226.000000
313.500000	250.000000
313.750000	217.000000
314.000000	226.000000
314.250000	231.000000
314.500000	200.000000
314.750000	215.000000
315.000000	197.000000
315.250000	197.000000
315.500000	196.000000
315.750000	206.000000
316.000000	194.000000
316.250000	191.000000
316.500000	172.000000
316.750000	183.000000
317.000000	173.000000
317.250000	178.000000
317.500000	174.000000
317.750000	159.000000
318.000000	166.000000
318.250000	158.000000
318.500000	152.000000
318.750000	157.000000
319.000000	149.000000
319.250000	153.000000
319.500000	145.000000
319.750000	156.000000
320.000000	149.000000
320.250000	141.000000
320.500000	143.000000
320.750000	138.000000
321.000000	123.000000
321.250000	135.000000
321.500000	130.000000
321.750000	129.000000
322.000000	116.000000
322.250000	134.000000
322.500000	114.000000
322.750000	110.000000
323.000000	119.000000
323.250000	112.000000
323.500000	113.000000
323.750000	103.000000
324.000000	102.000000
324.250000	92.000000
324.500000	90.000000
324.750000	94.000000
325.000000	95.000000
325.250000	87.000000
325.500000	83.000000
325.750000	70.000000
326.000000	78.000000
326.250000	79.000000
326.500000	77.000000
326.750000	74.000000
327.000000	61.000000
327.250000	70.000000
327.500000	55.000000
327.750000	60.000000
328.000000	62.000000
328.250000	61.000000
328.500000	54.000000
328.750000	54.000000
329.000000	56.000000
329.250000	52.000000
329.500000	45.000000
329.750000	35.000000
330.000000	43.000000
330.250000	26.000000
330.500000	31.000000
330.750000	30.000000
331.000000	39.000000
331.250000	25.000000
331.500000	22.000000
331.750000	27.000000
332.000000	29.000000
332.250000	27.000000
332.500000	28.000000
332.750000	10.000000
333.000000	17.000000
333.250000	18.000000
333.500000	17.000000
333.750000	18.000000
334.000000	17.000000
334.250000	18.000000
334.500000	13.000000
334.750000	11.000000
335.000000	8.000000
335.250000	9.000000
335.500000	6.000000
335.750000	9.000000
336.000000	6.000000
336.250000	6.000000
336.500000	2.000000
336.750000	5.000000
337.000000	7.000000
337.250000	6.000000
337.500000	1.000000
337.750000	3.000000
338.000000	1.000000
338.250000	3.000000
338.500000	0.000000
338.750000	2.000000
339.000000	0.000000
339.250000	2.000000
339.500000	0.000000
339.750000	2.000000
340.000000	0.000000
340.250000	0.000000
340.500000	0.000000
340.750000	0.000000
341.000000	0.000000
341.250000	0.000000
341.500000	0.000000
341.750000	0.000000
342.000000	0.000000
342.250000	0.000000
342.500000	1.000000
342.750000	0.000000
343.000000	0.000000
