Data: venerdì 15 maggio 2020	Ora: 12:47
Analizzatore  1: TOF TOF LR	Analizzatore  2: R66 ROUTE66_HR_XPS	
pass energy/rall 1: 0.00	pass energy/rall 2: 40.00	
******************************************************
Scansione:    angolo polare
Min (eV): 250.00	Max (eV): 343.00	Step (eV): 0.25	
kinetic energy 1 (eV): 0.00	kinetic energy 2 (eV): 1198.70
polar angle (deg): 343.00	X axis (mm): 580.50
*******************  R66 parameters ********************
Step in ch_x_eV: 10	Ch x eV @ Ep=1eV: 5236
binned channels: 14	same region acquisitions: 41
******************************************************
Acq. time (s):  1.00	Number of scans:  1	Total acq. time (s):  1.00
******************************************************
250.000000	265.000000
250.250000	256.000000
250.500000	277.000000
250.750000	299.000000
251.000000	310.000000
251.250000	319.000000
251.500000	358.000000
251.750000	387.000000
252.000000	447.000000
252.250000	475.000000
252.500000	505.000000
252.750000	513.000000
253.000000	517.000000
253.250000	539.000000
253.500000	543.000000
253.750000	593.000000
254.000000	623.000000
254.250000	644.000000
254.500000	609.000000
254.750000	645.000000
255.000000	656.000000
255.250000	625.000000
255.500000	683.000000
255.750000	752.000000
256.000000	746.000000
256.250000	689.000000
256.500000	715.000000
256.750000	751.000000
257.000000	727.000000
257.250000	701.000000
257.500000	689.000000
257.750000	741.000000
258.000000	750.000000
258.250000	748.000000
258.500000	670.000000
258.750000	730.000000
259.000000	673.000000
259.250000	683.000000
259.500000	707.000000
259.750000	694.000000
260.000000	724.000000
260.250000	715.000000
260.500000	689.000000
260.750000	680.000000
261.000000	716.000000
261.250000	751.000000
261.500000	745.000000
261.750000	688.000000
262.000000	660.000000
262.250000	741.000000
262.500000	727.000000
262.750000	700.000000
263.000000	630.000000
263.250000	717.000000
263.500000	694.000000
263.750000	670.000000
264.000000	753.000000
264.250000	684.000000
264.500000	708.000000
264.750000	693.000000
265.000000	691.000000
265.250000	635.000000
265.500000	705.000000
265.750000	708.000000
266.000000	675.000000
266.250000	774.000000
266.500000	694.000000
266.750000	629.000000
267.000000	724.000000
267.250000	685.000000
267.500000	694.000000
267.750000	701.000000
268.000000	690.000000
268.250000	654.000000
268.500000	688.000000
268.750000	647.000000
269.000000	705.000000
269.250000	661.000000
269.500000	679.000000
269.750000	686.000000
270.000000	670.000000
270.250000	648.000000
270.500000	701.000000
270.750000	657.000000
271.000000	666.000000
271.250000	660.000000
271.500000	649.000000
271.750000	646.000000
272.000000	665.000000
272.250000	669.000000
272.500000	628.000000
272.750000	623.000000
273.000000	668.000000
273.250000	627.000000
273.500000	637.000000
273.750000	652.000000
274.000000	655.000000
274.250000	647.000000
274.500000	690.000000
274.750000	650.000000
275.000000	650.000000
275.250000	610.000000
275.500000	663.000000
275.750000	643.000000
276.000000	619.000000
276.250000	655.000000
276.500000	667.000000
276.750000	611.000000
277.000000	613.000000
277.250000	635.000000
277.500000	660.000000
277.750000	627.000000
278.000000	630.000000
278.250000	645.000000
278.500000	639.000000
278.750000	600.000000
279.000000	604.000000
279.250000	604.000000
279.500000	595.000000
279.750000	640.000000
280.000000	600.000000
280.250000	612.000000
280.500000	605.000000
280.750000	589.000000
281.000000	588.000000
281.250000	622.000000
281.500000	596.000000
281.750000	594.000000
282.000000	630.000000
282.250000	628.000000
282.500000	611.000000
282.750000	625.000000
283.000000	607.000000
283.250000	641.000000
283.500000	613.000000
283.750000	655.000000
284.000000	571.000000
284.250000	638.000000
284.500000	580.000000
284.750000	582.000000
285.000000	567.000000
285.250000	639.000000
285.500000	603.000000
285.750000	602.000000
286.000000	571.000000
286.250000	549.000000
286.500000	599.000000
286.750000	568.000000
287.000000	600.000000
287.250000	616.000000
287.500000	575.000000
287.750000	573.000000
288.000000	584.000000
288.250000	587.000000
288.500000	607.000000
288.750000	572.000000
289.000000	561.000000
289.250000	572.000000
289.500000	564.000000
289.750000	597.000000
290.000000	596.000000
290.250000	604.000000
290.500000	562.000000
290.750000	545.000000
291.000000	557.000000
291.250000	533.000000
291.500000	549.000000
291.750000	614.000000
292.000000	557.000000
292.250000	540.000000
292.500000	570.000000
292.750000	577.000000
293.000000	536.000000
293.250000	545.000000
293.500000	566.000000
293.750000	580.000000
294.000000	583.000000
294.250000	530.000000
294.500000	586.000000
294.750000	553.000000
295.000000	504.000000
295.250000	546.000000
295.500000	558.000000
295.750000	530.000000
296.000000	513.000000
296.250000	551.000000
296.500000	523.000000
296.750000	518.000000
297.000000	569.000000
297.250000	558.000000
297.500000	522.000000
297.750000	554.000000
298.000000	510.000000
298.250000	557.000000
298.500000	547.000000
298.750000	509.000000
299.000000	500.000000
299.250000	556.000000
299.500000	506.000000
299.750000	517.000000
300.000000	534.000000
300.250000	517.000000
300.500000	523.000000
300.750000	497.000000
301.000000	569.000000
301.250000	498.000000
301.500000	470.000000
301.750000	494.000000
302.000000	489.000000
302.250000	496.000000
302.500000	490.000000
302.750000	463.000000
303.000000	481.000000
303.250000	485.000000
303.500000	453.000000
303.750000	515.000000
304.000000	483.000000
304.250000	503.000000
304.500000	473.000000
304.750000	462.000000
305.000000	456.000000
305.250000	462.000000
305.500000	453.000000
305.750000	495.000000
306.000000	472.000000
306.250000	468.000000
306.500000	468.000000
306.750000	445.000000
307.000000	469.000000
307.250000	469.000000
307.500000	437.000000
307.750000	465.000000
308.000000	453.000000
308.250000	436.000000
308.500000	463.000000
308.750000	419.000000
309.000000	443.000000
309.250000	432.000000
309.500000	474.000000
309.750000	450.000000
310.000000	448.000000
310.250000	410.000000
310.500000	384.000000
310.750000	425.000000
311.000000	462.000000
311.250000	439.000000
311.500000	444.000000
311.750000	401.000000
312.000000	393.000000
312.250000	393.000000
312.500000	426.000000
312.750000	395.000000
313.000000	407.000000
313.250000	459.000000
313.500000	369.000000
313.750000	393.000000
314.000000	376.000000
314.250000	386.000000
314.500000	370.000000
314.750000	411.000000
315.000000	327.000000
315.250000	370.000000
315.500000	366.000000
315.750000	368.000000
316.000000	383.000000
316.250000	365.000000
316.500000	352.000000
316.750000	397.000000
317.000000	374.000000
317.250000	334.000000
317.500000	352.000000
317.750000	353.000000
318.000000	364.000000
318.250000	344.000000
318.500000	297.000000
318.750000	352.000000
319.000000	334.000000
319.250000	362.000000
319.500000	348.000000
319.750000	346.000000
320.000000	356.000000
320.250000	352.000000
320.500000	298.000000
320.750000	297.000000
321.000000	305.000000
321.250000	297.000000
321.500000	311.000000
321.750000	323.000000
322.000000	260.000000
322.250000	295.000000
322.500000	300.000000
322.750000	304.000000
323.000000	266.000000
323.250000	291.000000
323.500000	262.000000
323.750000	296.000000
324.000000	255.000000
324.250000	289.000000
324.500000	287.000000
324.750000	279.000000
325.000000	273.000000
325.250000	250.000000
325.500000	235.000000
325.750000	260.000000
326.000000	259.000000
326.250000	237.000000
326.500000	249.000000
326.750000	230.000000
327.000000	247.000000
327.250000	229.000000
327.500000	216.000000
327.750000	232.000000
328.000000	228.000000
328.250000	240.000000
328.500000	215.000000
328.750000	201.000000
329.000000	221.000000
329.250000	226.000000
329.500000	205.000000
329.750000	211.000000
330.000000	218.000000
330.250000	193.000000
330.500000	213.000000
330.750000	167.000000
331.000000	206.000000
331.250000	195.000000
331.500000	207.000000
331.750000	176.000000
332.000000	169.000000
332.250000	169.000000
332.500000	161.000000
332.750000	161.000000
333.000000	158.000000
333.250000	161.000000
333.500000	164.000000
333.750000	149.000000
334.000000	142.000000
334.250000	123.000000
334.500000	161.000000
334.750000	140.000000
335.000000	142.000000
335.250000	152.000000
335.500000	124.000000
335.750000	136.000000
336.000000	115.000000
336.250000	113.000000
336.500000	94.000000
336.750000	127.000000
337.000000	108.000000
337.250000	95.000000
337.500000	113.000000
337.750000	99.000000
338.000000	101.000000
338.250000	83.000000
338.500000	92.000000
338.750000	90.000000
339.000000	85.000000
339.250000	90.000000
339.500000	71.000000
339.750000	70.000000
340.000000	56.000000
340.250000	52.000000
340.500000	66.000000
340.750000	73.000000
341.000000	57.000000
341.250000	53.000000
341.500000	41.000000
341.750000	47.000000
342.000000	56.000000
342.250000	42.000000
342.500000	34.000000
342.750000	30.000000
343.000000	30.000000
